#----------------------------------
# BOTDR
# DSTS: v.07.1
# Fri Oct 22 14:12:54 2021
#
# Channel No  = 0
# Partial   = 0
# Partial Start  = 0.00
# Partial End  = 114.40
# Fibre Length    [m]   = 114.40  0.00
# Fiber Delay    [m]   = 111.40
# Connection Point    [m]   = 191.49
# Rpt.period      [us]  = 27
# Pulse width     [ns]  = 10
# Frequency Start [MHz] = 10690.00
# Frequency End:  [MHz] = 10990.00
# Frequency Step: [MHz] = 5.00
# No.Averages:    [-]   = 12000
# Sampling Rate   [-]   = 0 (200.00MSs, spatial step = 0.50m)
# Input Range     [-]   = 2 (1V)
# Pulse Delay     [m]   = 100
# Post Pulse Data [m]   = 0
# Fiber Type      [-]   = CH4 Land
# Fiber  temperature [C] = 27.00
# Fiber  Bril Frequency  [MHz] = 10840.00
# Fiber  Strain Coefficient  [ue/MHz] = 18.9150
# Fiber Temperature Coefficient [C/MHz] = 0.9765
# Fiber Refractive Index = 1.4682
# Fiber Sigma = 0.2000
#
#----------------------------------
2D Baseline
255

-111.4000   10840.0000
-110.9000   10840.0000
-110.4000   10840.0000
-109.9000   10840.0000
-109.4000   10840.0000
-108.9000   10840.0000
-108.4000   10840.0000
-107.9000   10840.0000
-107.4000   10840.0000
-106.9000   10840.0000
-106.4000   10840.0000
-105.9000   10840.0000
-105.4000   10840.0000
-104.9000   10840.0000
-104.4000   10840.0000
-103.9000   10840.0000
-103.4000   10840.0000
-102.9000   10840.0000
-102.4000   10840.0000
-101.9000   10840.0000
-101.4000   10840.0000
-100.9000   10840.0000
-100.4000   10840.0000
-99.9000   10840.0000
-99.4000   10840.0000
-98.9000   10840.0000
-98.4000   10840.0000
-97.9000   10840.0000
-97.4000   10840.0000
-96.9000   10840.0000
-96.4000   10840.0000
-95.9000   10840.0000
-95.4000   10840.0000
-94.9000   10840.0000
-94.4000   10840.0000
-93.9000   10840.0000
-93.4000   10840.0000
-92.9000   10840.0000
-92.4000   10840.0000
-91.9000   10840.0000
-91.4000   10840.0000
-90.9000   10840.0000
-90.4000   10840.0000
-89.9000   10840.0000
-89.4000   10840.0000
-88.9000   10840.0000
-88.4000   10840.0000
-87.9000   10840.0000
-87.4000   10840.0000
-86.9000   10840.0000
-86.4000   10840.0000
-85.9000   10840.0000
-85.4000   10840.0000
-84.9000   10840.0000
-84.4000   10840.0000
-83.9000   10840.0000
-83.4000   10840.0000
-82.9000   10840.0000
-82.4000   10840.0000
-81.9000   10840.0000
-81.4000   10840.0000
-80.9000   10840.0000
-80.4000   10840.0000
-79.9000   10840.0000
-79.4000   10840.0000
-78.9000   10840.0000
-78.4000   10840.0000
-77.9000   10840.0000
-77.4000   10840.0000
-76.9000   10840.0000
-76.4000   10840.0000
-75.9000   10840.0000
-75.4000   10840.0000
-74.9000   10840.0000
-74.4000   10840.0000
-73.9000   10840.0000
-73.4000   10840.0000
-72.9000   10840.0000
-72.4000   10840.0000
-71.9000   10840.0000
-71.4000   10840.0000
-70.9000   10840.0000
-70.4000   10840.0000
-69.9000   10840.0000
-69.4000   10840.0000
-68.9000   10840.0000
-68.4000   10840.0000
-67.9000   10840.0000
-67.4000   10840.0000
-66.9000   10840.0000
-66.4000   10840.0000
-65.9000   10840.0000
-65.4000   10840.0000
-64.9000   10840.0000
-64.4000   10840.0000
-63.9000   10840.0000
-63.4000   10840.0000
-62.9000   10840.0000
-62.4000   10840.0000
-61.9000   10840.0000
-61.4000   10840.0000
-60.9000   10840.0000
-60.4000   10840.0000
-59.9000   10840.0000
-59.4000   10840.0000
-58.9000   10840.0000
-58.4000   10840.0000
-57.9000   10840.0000
-57.4000   10840.0000
-56.9000   10840.0000
-56.4000   10840.0000
-55.9000   10840.0000
-55.4000   10840.0000
-54.9000   10840.0000
-54.4000   10840.0000
-53.9000   10840.0000
-53.4000   10840.0000
-52.9000   10840.0000
-52.4000   10840.0000
-51.9000   10840.0000
-51.4000   10840.0000
-50.9000   10840.0000
-50.4000   10840.0000
-49.9000   10840.0000
-49.4000   10840.0000
-48.9000   10840.0000
-48.4000   10840.0000
-47.9000   10840.0000
-47.4000   10840.0000
-46.9000   10840.0000
-46.4000   10840.0000
-45.9000   10840.0000
-45.4000   10840.0000
-44.9000   10840.0000
-44.4000   10840.0000
-43.9000   10840.0000
-43.4000   10840.0000
-42.9000   10840.0000
-42.4000   10840.0000
-41.9000   10840.0000
-41.4000   10840.0000
-40.9000   10840.0000
-40.4000   10840.0000
-39.9000   10840.0000
-39.4000   10840.0000
-38.9000   10840.0000
-38.4000   10840.0000
-37.9000   10840.0000
-37.4000   10840.0000
-36.9000   10840.0000
-36.4000   10840.0000
-35.9000   10840.0000
-35.4000   10840.0000
-34.9000   10840.0000
-34.4000   10840.0000
-33.9000   10840.0000
-33.4000   10840.0000
-32.9000   10840.0000
-32.4000   10840.0000
-31.9000   10840.0000
-31.4000   10840.0000
-30.9000   10840.0000
-30.4000   10840.0000
-29.9000   10840.0000
-29.4000   10840.0000
-28.9000   10840.0000
-28.4000   10840.0000
-27.9000   10840.0000
-27.4000   10840.0000
-26.9000   10840.0000
-26.4000   10840.0000
-25.9000   10840.0000
-25.4000   10840.0000
-24.9000   10840.0000
-24.4000   10840.0000
-23.9000   10840.0000
-23.4000   10840.0000
-22.9000   10840.0000
-22.4000   10840.0000
-21.9000   10840.0000
-21.4000   10840.0000
-20.9000   10840.0000
-20.4000   10840.0000
-19.9000   10840.0000
-19.4000   10840.0000
-18.9000   10840.0000
-18.4000   10840.0000
-17.9000   10840.0000
-17.4000   10840.0000
-16.9000   10840.0000
-16.4000   10840.0000
-15.9000   10840.0000
-15.4000   10840.0000
-14.9000   10840.0000
-14.4000   10840.0000
-13.9000   10840.0000
-13.4000   10840.0000
-12.9000   10840.0000
-12.4000   10840.0000
-11.9000   10840.0000
-11.4000   10840.0000
-10.9000   10840.0000
-10.4000   10840.0000
-9.9000   10840.0000
-9.4000   10840.0000
-8.9000   10840.0000
-8.4000   10840.0000
-7.9000   10840.0000
-7.4000   10840.0000
-6.9000   10840.0000
-6.4000   10840.0000
-5.9000   10840.0000
-5.4000   10840.0000
-4.9000   10840.0000
-4.4000   10840.0000
-3.9000   10840.0000
-3.4000   10840.0000
-2.9000   10840.0000
-2.4000   10840.0000
-1.9000   10840.0000
-1.4000   10822.3255
-0.9000   10819.1425
-0.4000   10823.8625
0.1000   10820.3081
0.6100   10817.6383
1.1200   10817.1827
1.6300   10815.3315
2.1400   10813.6694
2.6500   10815.3890
3.1600   10812.6558
3.6700   10720.0000
4.1800   10735.0000
4.6900   10700.0000
5.2000   10755.0000
5.7200   10980.0000
6.2300   10870.0000
6.7400   10730.0000
7.2500   10775.0000
7.7600   10690.0000
8.2700   10730.0000
8.7800   10715.0000
9.2900   10755.0000
9.8000   10860.0000
10.3100   10755.0000
10.8200   10725.0000
11.3300   10820.0000
11.8400   10705.0000
12.3500   10815.0000
12.8600   10715.0000
13.3700   10705.0000
13.8800   10980.0000
14.3900   10715.0000
14.9000   10755.0000
15.4100   10800.0000
15.9200   10805.0000
